ENVI ASCII Plot File [Wed Jan 07 23:46:43 2026]
Column 1: Wavelength
Column 2: antigor4.spc Antigorite NMNH96917 70um~~1
  0.395100  0.234972
  0.397100  0.236299
  0.399100  0.237108
  0.401100  0.240636
  0.403100  0.238280
  0.405100  0.240500
  0.407100  0.241960
  0.409100  0.238824
  0.411100  0.243127
  0.412800  0.248499
  0.415800  0.249150
  0.418800  0.252467
  0.421800  0.255678
  0.424800  0.254132
  0.427800  0.261733
  0.430800  0.266265
  0.433800  0.266450
  0.436800  0.268788
  0.439800  0.273910
  0.442800  0.275741
  0.445800  0.270552
  0.448800  0.268666
  0.451300  0.274470
  0.453300  0.274350
  0.455300  0.276678
  0.457300  0.277863
  0.459300  0.279509
  0.461300  0.282698
  0.463300  0.287435
  0.465300  0.282889
  0.467300  0.284572
  0.469300  0.287827
  0.471300  0.291741
  0.473300  0.297150
  0.475300  0.293924
  0.477300  0.300477
  0.479300  0.303658
  0.481300  0.305298
  0.483300  0.304309
  0.485300  0.307338
  0.487300  0.314844
  0.489300  0.313059
  0.491300  0.313001
  0.493300  0.309900
  0.495300  0.313407
  0.497300  0.309901
  0.499300  0.317708
  0.501300  0.320822
  0.503300  0.318656
  0.505300  0.319395
  0.507300  0.324778
  0.509300  0.320094
  0.511300  0.323148
  0.513300  0.325054
  0.515300  0.325271
  0.517300  0.326432
  0.519300  0.325845
  0.521300  0.327517
  0.523300  0.324365
  0.525300  0.323238
  0.527300  0.323269
  0.529300  0.318833
  0.531300  0.317716
  0.533300  0.321025
  0.535300  0.318092
  0.537300  0.314144
  0.539300  0.316246
  0.541300  0.315804
  0.543300  0.324421
  0.545300  0.319440
  0.547300  0.319787
  0.549300  0.316573
  0.551300  0.320749
  0.553300  0.321321
  0.555300  0.317398
  0.557300  0.314224
  0.559300  0.316392
  0.561300  0.315715
  0.563300  0.315236
  0.565300  0.310385
  0.567300  0.310537
  0.569300  0.313396
  0.571300  0.310931
  0.573300  0.314019
  0.575300  0.311349
  0.577300  0.311165
  0.579300  0.309263
  0.581300  0.305145
  0.583300  0.303159
  0.585300  0.307048
  0.587300  0.304533
  0.589300  0.302928
  0.591300  0.300959
  0.593300  0.301253
  0.595300  0.299144
  0.597300  0.292195
  0.599300  0.296784
  0.601100  0.297900
  0.602700  0.297515
  0.604300  0.296365
  0.605900  0.293505
  0.607500  0.293412
  0.609100  0.295851
  0.610700  0.295204
  0.612300  0.294354
  0.613900  0.290195
  0.615500  0.291873
  0.617100  0.290839
  0.618700  0.287462
  0.620300  0.287567
  0.621900  0.285175
  0.623500  0.286323
  0.625100  0.278494
  0.626700  0.279480
  0.628300  0.284429
  0.629900  0.278357
  0.631700  0.280988
  0.633700  0.281267
  0.635700  0.280319
  0.637700  0.278560
  0.639700  0.277282
  0.641700  0.276381
  0.643700  0.274870
  0.645700  0.272204
  0.647700  0.272679
  0.649700  0.275333
  0.651700  0.271957
  0.653700  0.270340
  0.655700  0.272871
  0.657700  0.271795
  0.659700  0.266003
  0.661700  0.268899
  0.663700  0.270773
  0.665700  0.263872
  0.667700  0.264584
  0.670200  0.267817
  0.673200  0.266398
  0.676200  0.265378
  0.679200  0.260426
  0.682200  0.262824
  0.685200  0.261834
  0.688200  0.263222
  0.691200  0.256111
  0.694200  0.257130
  0.697200  0.253329
  0.700200  0.263817
  0.702000  0.261439
  0.704000  0.257745
  0.706000  0.263380
  0.708000  0.257908
  0.710000  0.257669
  0.712000  0.257720
  0.714000  0.256716
  0.716000  0.262485
  0.718000  0.261103
  0.720000  0.261756
  0.722000  0.265297
  0.724000  0.264576
  0.726000  0.262264
  0.728000  0.263681
  0.730000  0.260377
  0.732000  0.262059
  0.734000  0.264488
  0.736000  0.267268
  0.738000  0.260050
  0.740000  0.266609
  0.742000  0.262628
  0.744000  0.270393
  0.746000  0.263554
  0.748000  0.267921
  0.750500  0.268568
  0.753500  0.268314
  0.756500  0.263043
  0.759500  0.271362
  0.762500  0.271917
  0.765500  0.267233
  0.768500  0.277596
  0.771500  0.274929
  0.774500  0.276979
  0.777500  0.282744
  0.781000  0.285358
  0.785000  0.292739
  0.789000  0.290801
  0.793000  0.287532
  0.797000  0.287086
  0.801500  0.287086
  0.806500  0.287086
  0.811500  0.287086
  0.816500  0.287086
  0.822000  0.287086
  0.828000  0.287086
  0.835000  0.287086
  0.843000  0.287086
  0.851000  0.298840
  0.859000  0.286852
  0.871000  0.273088
  0.883000  0.274975
  0.894000  0.276010
  0.904000  0.273361
  0.914000  0.276666
  0.924000  0.274520
  0.933000  0.268837
  0.941000  0.273566
  0.949000  0.273928
  0.957000  0.271823
  0.964000  0.275819
  0.970000  0.278410
  0.976000  0.281096
  0.982000  0.279712
  0.988000  0.283948
  0.994000  0.276418
  1.000000  0.277071
  1.006000  0.276816
  1.012000  0.274483
  1.018000  0.274768
  1.023500  0.273884
  1.028500  0.276003
  1.033500  0.279698
  1.038500  0.275646
  1.043500  0.274020
  1.048500  0.275060
  1.053500  0.278989
  1.058500  0.274376
  1.063500  0.276413
  1.068500  0.275687
  1.073500  0.279018
  1.078500  0.278529
  1.083500  0.279687
  1.088500  0.285039
  1.093500  0.288359
  1.098500  0.290817
  1.103500  0.292048
  1.108500  0.293508
  1.113500  0.295140
  1.118500  0.296821
  1.123500  0.293660
  1.128500  0.300592
  1.133500  0.302847
  1.138500  0.298818
  1.143500  0.301216
  1.148500  0.304869
  1.153500  0.305475
  1.158500  0.307571
  1.163500  0.312801
  1.168500  0.307239
  1.173500  0.315449
  1.178500  0.316257
  1.183500  0.318898
  1.188500  0.317744
  1.193500  0.313973
  1.198500  0.325333
  1.203500  0.324141
  1.208500  0.332221
  1.213500  0.331524
  1.218500  0.334759
  1.223500  0.339502
  1.228500  0.336382
  1.233500  0.345493
  1.238500  0.337283
  1.243500  0.343669
  1.248500  0.346577
  1.253500  0.345181
  1.258500  0.344718
  1.263500  0.353616
  1.268500  0.357337
  1.273500  0.357464
  1.278500  0.356480
  1.283500  0.355874
  1.288500  0.362482
  1.293500  0.361406
  1.298500  0.367811
  1.303500  0.362417
  1.308500  0.370141
  1.313500  0.371232
  1.318500  0.377697
  1.323500  0.375050
  1.328500  0.380493
  1.333500  0.377862
  1.338500  0.378906
  1.343500  0.384658
  1.348500  0.391783
  1.353500  0.388507
  1.358500  0.382862
  1.363500  0.386009
  1.368500  0.390546
  1.373500  0.387468
  1.378500  0.384382
  1.383500  0.351225
  1.388500  0.350414
  1.393500  0.330517
  1.398500  0.340436
  1.403500  0.354416
  1.408500  0.372202
  1.413500  0.381991
  1.418500  0.400363
  1.423500  0.402048
  1.428500  0.405088
  1.433500  0.408121
  1.438500  0.413059
  1.443500  0.410406
  1.448500  0.412319
  1.453500  0.419970
  1.458500  0.424981
  1.463500  0.421108
  1.468500  0.425696
  1.473500  0.427347
  1.478500  0.424001
  1.483500  0.430898
  1.488500  0.436411
  1.493500  0.429469
  1.498500  0.435898
  1.503500  0.436675
  1.508500  0.437306
  1.513500  0.430761
  1.518500  0.444218
  1.523500  0.444392
  1.528500  0.441386
  1.534000  0.441146
  1.540000  0.444108
  1.546000  0.444775
  1.552000  0.446723
  1.558000  0.446779
  1.564000  0.450924
  1.570500  0.454224
  1.577500  0.451788
  1.584500  0.452386
  1.591500  0.453540
  1.598500  0.455256
  1.605500  0.455387
  1.612500  0.460115
  1.619500  0.462186
  1.626500  0.461205
  1.633500  0.460247
  1.640500  0.457942
  1.647500  0.467463
  1.654500  0.466420
  1.661500  0.466234
  1.668500  0.460799
  1.676000  0.470067
  1.684000  0.468335
  1.692000  0.468978
  1.700000  0.466323
  1.708000  0.465927
  1.716000  0.468179
  1.724000  0.473797
  1.732000  0.469587
  1.740000  0.474666
  1.748000  0.472076
  1.756000  0.467233
  1.764000  0.466642
  1.772000  0.473122
  1.780000  0.464637
  1.788000  0.473577
  1.796000  0.471374
  1.805000  0.475320
  1.815000  0.470912
  1.825000  0.478711
  1.835000  0.469442
  1.845000  0.472268
  1.855000  0.474067
  1.865000  0.480242
  1.875000  0.473235
  1.885000  0.474709
  1.895000  0.471895
  1.905000  0.467561
  1.915000  0.458732
  1.925000  0.469783
  1.935000  0.457952
  1.945000  0.452869
  1.955000  0.449864
  1.965000  0.448756
  1.975000  0.442768
  1.985000  0.444124
  1.995000  0.450289
  2.005000  0.447670
  2.015000  0.450585
  2.025000  0.463787
  2.035000  0.461631
  2.045000  0.467061
  2.055000  0.469603
  2.065000  0.465935
  2.075000  0.466416
  2.085000  0.461339
  2.095000  0.463003
  2.105000  0.463045
  2.115000  0.455330
  2.125000  0.459000
  2.135000  0.461648
  2.145000  0.461742
  2.155000  0.461535
  2.165000  0.467049
  2.175000  0.463669
  2.185000  0.469926
  2.195000  0.469508
  2.205000  0.464235
  2.215000  0.449561
  2.225000  0.450824
  2.235000  0.429179
  2.245000  0.409076
  2.255000  0.404779
  2.265000  0.393140
  2.275000  0.363663
  2.285000  0.334581
  2.295000  0.342997
  2.305000  0.325560
  2.315000  0.271605
  2.325000  0.281323
  2.335000  0.313373
  2.345000  0.336994
  2.355000  0.359978
  2.365000  0.369909
  2.375000  0.357642
  2.386000  0.340987
  2.400000  0.352508
  2.418000  0.345414
  2.440000  0.337941
  2.466000  0.324335
  2.496000  0.320410
  2.528000  0.318352
  2.560000  0.330717
