ENVI ASCII Plot File [Wed Jan 07 23:46:07 2026]
Column 1: Wavelength
Column 2: antigor6.spc Antigorite NMNH96917 <30u~~1
  0.395100  0.377239
  0.397100  0.380327
  0.399100  0.378535
  0.401100  0.376043
  0.403100  0.379734
  0.405100  0.382516
  0.407100  0.385693
  0.409100  0.388112
  0.411100  0.389306
  0.412800  0.392245
  0.415800  0.397255
  0.418800  0.402150
  0.421800  0.409156
  0.424800  0.413575
  0.427800  0.418666
  0.430800  0.419327
  0.433800  0.426091
  0.436800  0.434271
  0.439800  0.434377
  0.442800  0.434392
  0.445800  0.433942
  0.448800  0.437456
  0.451300  0.437928
  0.453300  0.442169
  0.455300  0.444043
  0.457300  0.448923
  0.459300  0.445202
  0.461300  0.452106
  0.463300  0.453974
  0.465300  0.452834
  0.467300  0.461473
  0.469300  0.464716
  0.471300  0.469330
  0.473300  0.465970
  0.475300  0.473383
  0.477300  0.473619
  0.479300  0.480654
  0.481300  0.483718
  0.483300  0.488792
  0.485300  0.485552
  0.487300  0.490273
  0.489300  0.494464
  0.491300  0.495454
  0.493300  0.486760
  0.495300  0.496688
  0.497300  0.500176
  0.499300  0.498568
  0.501300  0.505339
  0.503300  0.500870
  0.505300  0.502442
  0.507300  0.507154
  0.509300  0.509125
  0.511300  0.512727
  0.513300  0.509887
  0.515300  0.510130
  0.517300  0.514688
  0.519300  0.515229
  0.521300  0.510207
  0.523300  0.508781
  0.525300  0.507934
  0.527300  0.513811
  0.529300  0.503842
  0.531300  0.510176
  0.533300  0.509996
  0.535300  0.507261
  0.537300  0.505283
  0.539300  0.503013
  0.541300  0.509403
  0.543300  0.510276
  0.545300  0.503600
  0.547300  0.511034
  0.549300  0.503848
  0.551300  0.504109
  0.553300  0.505453
  0.555300  0.509273
  0.557300  0.509812
  0.559300  0.504031
  0.561300  0.509055
  0.563300  0.504102
  0.565300  0.503987
  0.567300  0.500952
  0.569300  0.503399
  0.571300  0.501601
  0.573300  0.502257
  0.575300  0.499751
  0.577300  0.491964
  0.579300  0.498367
  0.581300  0.494349
  0.583300  0.498584
  0.585300  0.499191
  0.587300  0.498930
  0.589300  0.497852
  0.591300  0.499152
  0.593300  0.494024
  0.595300  0.494417
  0.597300  0.495540
  0.599300  0.494125
  0.601100  0.492925
  0.602700  0.492117
  0.604300  0.488075
  0.605900  0.485389
  0.607500  0.492213
  0.609100  0.489693
  0.610700  0.487065
  0.612300  0.481008
  0.613900  0.487797
  0.615500  0.483062
  0.617100  0.478147
  0.618700  0.480552
  0.620300  0.479791
  0.621900  0.479364
  0.623500  0.475894
  0.625100  0.481144
  0.626700  0.475729
  0.628300  0.479308
  0.629900  0.476646
  0.631700  0.472869
  0.633700  0.470962
  0.635700  0.472889
  0.637700  0.471226
  0.639700  0.469521
  0.641700  0.466250
  0.643700  0.464661
  0.645700  0.462593
  0.647700  0.464833
  0.649700  0.463018
  0.651700  0.462676
  0.653700  0.460974
  0.655700  0.460091
  0.657700  0.461225
  0.659700  0.457648
  0.661700  0.457903
  0.663700  0.458414
  0.665700  0.455337
  0.667700  0.452504
  0.670200  0.453937
  0.673200  0.453208
  0.676200  0.453974
  0.679200  0.449633
  0.682200  0.450045
  0.685200  0.449320
  0.688200  0.449937
  0.691200  0.449794
  0.694200  0.445812
  0.697200  0.453240
  0.700200  0.447705
  0.702000  0.451842
  0.704000  0.449767
  0.706000  0.446314
  0.708000  0.446828
  0.710000  0.445758
  0.712000  0.450859
  0.714000  0.449252
  0.716000  0.446655
  0.718000  0.448442
  0.720000  0.451057
  0.722000  0.448034
  0.724000  0.451070
  0.726000  0.453521
  0.728000  0.454425
  0.730000  0.453358
  0.732000  0.452875
  0.734000  0.453122
  0.736000  0.456076
  0.738000  0.453455
  0.740000  0.455547
  0.742000  0.459861
  0.744000  0.462121
  0.746000  0.457380
  0.748000  0.461391
  0.750500  0.463166
  0.753500  0.466851
  0.756500  0.468883
  0.759500  0.471744
  0.762500  0.469570
  0.765500  0.475257
  0.768500  0.475867
  0.771500  0.481147
  0.774500  0.483897
  0.777500  0.485186
  0.781000  0.492601
  0.785000  0.492960
  0.789000  0.493345
  0.793000  0.500794
  0.797000  0.502199
  0.801500  0.501443
  0.806500  0.505628
  0.811500  0.507484
  0.816500  0.508787
  0.822000  0.510103
  0.828000  0.504912
  0.835000  0.506917
  0.843000  0.498140
  0.851000  0.495445
  0.859000  0.484649
  0.871000  0.499598
  0.883000  0.483137
  0.894000  0.487087
  0.904000  0.476263
  0.914000  0.484461
  0.924000  0.483774
  0.933000  0.479582
  0.941000  0.494142
  0.949000  0.491057
  0.957000  0.494240
  0.964000  0.494734
  0.970000  0.492914
  0.976000  0.508205
  0.982000  0.499485
  0.988000  0.502627
  0.994000  0.503203
  1.000000  0.505189
  1.006000  0.508418
  1.012000  0.504787
  1.018000  0.505932
  1.023500  0.502574
  1.028500  0.505884
  1.033500  0.503926
  1.038500  0.499038
  1.043500  0.507301
  1.048500  0.500940
  1.053500  0.498901
  1.058500  0.502374
  1.063500  0.500569
  1.068500  0.500294
  1.073500  0.501508
  1.078500  0.502784
  1.083500  0.505264
  1.088500  0.502546
  1.093500  0.507008
  1.098500  0.507730
  1.103500  0.507780
  1.108500  0.505702
  1.113500  0.513689
  1.118500  0.511580
  1.123500  0.512299
  1.128500  0.516739
  1.133500  0.513971
  1.138500  0.519286
  1.143500  0.519548
  1.148500  0.521350
  1.153500  0.522106
  1.158500  0.524807
  1.163500  0.523599
  1.168500  0.527705
  1.173500  0.523911
  1.178500  0.526070
  1.183500  0.534086
  1.188500  0.532592
  1.193500  0.537632
  1.198500  0.538510
  1.203500  0.538666
  1.208500  0.545397
  1.213500  0.545689
  1.218500  0.548298
  1.223500  0.552947
  1.228500  0.558216
  1.233500  0.554871
  1.238500  0.560147
  1.243500  0.556834
  1.248500  0.564776
  1.253500  0.564379
  1.258500  0.567175
  1.263500  0.566692
  1.268500  0.567120
  1.273500  0.571670
  1.278500  0.577569
  1.283500  0.570868
  1.288500  0.581150
  1.293500  0.577796
  1.298500  0.587972
  1.303500  0.581372
  1.308500  0.584734
  1.313500  0.586584
  1.318500  0.588868
  1.323500  0.593332
  1.328500  0.596532
  1.333500  0.597739
  1.338500  0.597597
  1.343500  0.602625
  1.348500  0.598601
  1.353500  0.602271
  1.358500  0.599258
  1.363500  0.594432
  1.368500  0.602379
  1.373500  0.604266
  1.378500  0.594316
  1.383500  0.570548
  1.388500  0.563748
  1.393500  0.548990
  1.398500  0.552304
  1.403500  0.574358
  1.408500  0.583014
  1.413500  0.594934
  1.418500  0.612630
  1.423500  0.613074
  1.428500  0.617762
  1.433500  0.622440
  1.438500  0.623944
  1.443500  0.626069
  1.448500  0.627331
  1.453500  0.632362
  1.458500  0.631660
  1.463500  0.636433
  1.468500  0.632127
  1.473500  0.635784
  1.478500  0.638227
  1.483500  0.634582
  1.488500  0.642922
  1.493500  0.646069
  1.498500  0.645078
  1.503500  0.648396
  1.508500  0.643621
  1.513500  0.645459
  1.518500  0.643702
  1.523500  0.653931
  1.528500  0.646253
  1.534000  0.653898
  1.540000  0.649340
  1.546000  0.654119
  1.552000  0.653810
  1.558000  0.657882
  1.564000  0.657560
  1.570500  0.653187
  1.577500  0.657611
  1.584500  0.656752
  1.591500  0.660762
  1.598500  0.658050
  1.605500  0.652496
  1.612500  0.656564
  1.619500  0.662814
  1.626500  0.667464
  1.633500  0.665654
  1.640500  0.666887
  1.647500  0.665218
  1.654500  0.669276
  1.661500  0.661458
  1.668500  0.667339
  1.676000  0.660667
  1.684000  0.673791
  1.692000  0.673406
  1.700000  0.671355
  1.708000  0.671510
  1.716000  0.672368
  1.724000  0.676250
  1.732000  0.663981
  1.740000  0.674752
  1.748000  0.666229
  1.756000  0.673398
  1.764000  0.675609
  1.772000  0.671563
  1.780000  0.661900
  1.788000  0.676617
  1.796000  0.679223
  1.805000  0.672073
  1.815000  0.675935
  1.825000  0.677608
  1.835000  0.677199
  1.845000  0.674472
  1.855000  0.667564
  1.865000  0.677412
  1.875000  0.677057
  1.885000  0.671279
  1.895000  0.671377
  1.905000  0.666283
  1.915000  0.655123
  1.925000  0.660535
  1.935000  0.657356
  1.945000  0.661307
  1.955000  0.646663
  1.965000  0.653354
  1.975000  0.645017
  1.985000  0.651681
  1.995000  0.653705
  2.005000  0.654611
  2.015000  0.657470
  2.025000  0.652792
  2.035000  0.667922
  2.045000  0.672775
  2.055000  0.674447
  2.065000  0.670291
  2.075000  0.664498
  2.085000  0.659224
  2.095000  0.655438
  2.105000  0.656448
  2.115000  0.659213
  2.125000  0.666159
  2.135000  0.668187
  2.145000  0.662754
  2.155000  0.666893
  2.165000  0.670964
  2.175000  0.675136
  2.185000  0.664914
  2.195000  0.661363
  2.205000  0.657086
  2.215000  0.662743
  2.225000  0.645918
  2.235000  0.631612
  2.245000  0.615624
  2.255000  0.612612
  2.265000  0.599419
  2.275000  0.585440
  2.285000  0.550463
  2.295000  0.536869
  2.305000  0.511699
  2.315000  0.479954
  2.325000  0.487045
  2.335000  0.514083
  2.345000  0.544424
  2.355000  0.569784
  2.365000  0.581285
  2.375000  0.575561
  2.386000  0.554734
  2.400000  0.563708
  2.418000  0.557117
  2.440000  0.548061
  2.466000  0.544226
  2.496000  0.530427
  2.528000  0.528748
  2.560000  0.527446
