ENVI ASCII Plot File [Wed Jan 07 23:46:26 2026]
Column 1: Wavelength
Column 2: antigor3.spc Antigorite NMNH96917 120u~~2
  0.395100  0.192452
  0.397100  0.194179
  0.399100  0.189847
  0.401100  0.193452
  0.403100  0.186705
  0.405100  0.191704
  0.407100  0.191377
  0.409100  0.195750
  0.411100  0.192205
  0.412800  0.198621
  0.415800  0.202623
  0.418800  0.202810
  0.421800  0.205289
  0.424800  0.212561
  0.427800  0.212525
  0.430800  0.217016
  0.433800  0.215744
  0.436800  0.222973
  0.439800  0.227860
  0.442800  0.223770
  0.445800  0.226151
  0.448800  0.222842
  0.451300  0.225486
  0.453300  0.228492
  0.455300  0.227712
  0.457300  0.235759
  0.459300  0.236365
  0.461300  0.229210
  0.463300  0.241085
  0.465300  0.242338
  0.467300  0.245075
  0.469300  0.246872
  0.471300  0.251117
  0.473300  0.256486
  0.475300  0.250156
  0.477300  0.258003
  0.479300  0.258861
  0.481300  0.266137
  0.483300  0.266798
  0.485300  0.266751
  0.487300  0.270592
  0.489300  0.271802
  0.491300  0.269339
  0.493300  0.272477
  0.495300  0.272600
  0.497300  0.274970
  0.499300  0.274834
  0.501300  0.280413
  0.503300  0.275942
  0.505300  0.279841
  0.507300  0.285504
  0.509300  0.287831
  0.511300  0.284412
  0.513300  0.281929
  0.515300  0.286064
  0.517300  0.284918
  0.519300  0.286656
  0.521300  0.278398
  0.523300  0.286189
  0.525300  0.279442
  0.527300  0.285771
  0.529300  0.278512
  0.531300  0.279015
  0.533300  0.279709
  0.535300  0.279841
  0.537300  0.279075
  0.539300  0.272913
  0.541300  0.280367
  0.543300  0.277827
  0.545300  0.282955
  0.547300  0.278359
  0.549300  0.279136
  0.551300  0.273045
  0.553300  0.273248
  0.555300  0.275961
  0.557300  0.270634
  0.559300  0.274714
  0.561300  0.273827
  0.563300  0.271645
  0.565300  0.271025
  0.567300  0.269517
  0.569300  0.269364
  0.571300  0.266179
  0.573300  0.261509
  0.575300  0.260612
  0.577300  0.265749
  0.579300  0.258743
  0.581300  0.262985
  0.583300  0.265146
  0.585300  0.258580
  0.587300  0.256063
  0.589300  0.263255
  0.591300  0.256312
  0.593300  0.253900
  0.595300  0.252970
  0.597300  0.249314
  0.599300  0.252339
  0.601100  0.249852
  0.602700  0.247987
  0.604300  0.248608
  0.605900  0.245427
  0.607500  0.244909
  0.609100  0.244120
  0.610700  0.244989
  0.612300  0.244995
  0.613900  0.241715
  0.615500  0.239863
  0.617100  0.240351
  0.618700  0.240234
  0.620300  0.238272
  0.621900  0.232975
  0.623500  0.234187
  0.625100  0.236596
  0.626700  0.234631
  0.628300  0.231381
  0.629900  0.230982
  0.631700  0.233829
  0.633700  0.229439
  0.635700  0.227738
  0.637700  0.225643
  0.639700  0.221467
  0.641700  0.227553
  0.643700  0.221919
  0.645700  0.219020
  0.647700  0.214820
  0.649700  0.224339
  0.651700  0.218365
  0.653700  0.219471
  0.655700  0.219659
  0.657700  0.214642
  0.659700  0.214983
  0.661700  0.218305
  0.663700  0.215579
  0.665700  0.209631
  0.667700  0.211633
  0.670200  0.213862
  0.673200  0.214530
  0.676200  0.211639
  0.679200  0.213060
  0.682200  0.204589
  0.685200  0.211134
  0.688200  0.209778
  0.691200  0.210996
  0.694200  0.200075
  0.697200  0.203244
  0.700200  0.202379
  0.702000  0.211139
  0.704000  0.203948
  0.706000  0.202231
  0.708000  0.204814
  0.710000  0.202228
  0.712000  0.202745
  0.714000  0.202833
  0.716000  0.203534
  0.718000  0.202075
  0.720000  0.200441
  0.722000  0.204586
  0.724000  0.208160
  0.726000  0.206430
  0.728000  0.208069
  0.730000  0.202100
  0.732000  0.205829
  0.734000  0.207489
  0.736000  0.202362
  0.738000  0.200192
  0.740000  0.202727
  0.742000  0.208640
  0.744000  0.209277
  0.746000  0.206916
  0.748000  0.205616
  0.750500  0.205015
  0.753500  0.216968
  0.756500  0.210856
  0.759500  0.216369
  0.762500  0.215822
  0.765500  0.217599
  0.768500  0.222271
  0.771500  0.224235
  0.774500  0.226154
  0.777500  0.228114
  0.781000  0.230882
  0.785000  0.235292
  0.789000  0.232409
  0.793000  0.234061
  0.797000  0.234563
  0.801500  0.242509
  0.806500  0.240232
  0.811500  0.244878
  0.816500  0.243510
  0.822000  0.246693
  0.828000  0.236814
  0.835000  0.237372
  0.843000  0.233834
  0.851000  0.253392
  0.859000  0.236719
  0.871000  0.234075
  0.883000  0.229615
  0.894000  0.236450
  0.904000  0.227695
  0.914000  0.227693
  0.924000  0.223252
  0.933000  0.228027
  0.941000  0.232281
  0.949000  0.225204
  0.957000  0.232280
  0.964000  0.233051
  0.970000  0.235110
  0.976000  0.231555
  0.982000  0.232068
  0.988000  0.235110
  0.994000  0.234031
  1.000000  0.236986
  1.006000  0.233685
  1.012000  0.229128
  1.018000  0.236150
  1.023500  0.232584
  1.028500  0.232419
  1.033500  0.229115
  1.038500  0.238489
  1.043500  0.233734
  1.048500  0.229594
  1.053500  0.234590
  1.058500  0.233513
  1.063500  0.239281
  1.068500  0.232487
  1.073500  0.234520
  1.078500  0.237121
  1.083500  0.235621
  1.088500  0.237668
  1.093500  0.234694
  1.098500  0.239827
  1.103500  0.240627
  1.108500  0.240324
  1.113500  0.242178
  1.118500  0.243381
  1.123500  0.242439
  1.128500  0.250796
  1.133500  0.246945
  1.138500  0.246917
  1.143500  0.251740
  1.148500  0.252471
  1.153500  0.253128
  1.158500  0.254800
  1.163500  0.258357
  1.168500  0.259233
  1.173500  0.259877
  1.178500  0.262854
  1.183500  0.265869
  1.188500  0.266659
  1.193500  0.271754
  1.198500  0.267128
  1.203500  0.278249
  1.208500  0.273333
  1.213500  0.282534
  1.218500  0.287376
  1.223500  0.288790
  1.228500  0.293903
  1.233500  0.293329
  1.238500  0.295010
  1.243500  0.289134
  1.248500  0.299399
  1.253500  0.301613
  1.258500  0.306285
  1.263500  0.305107
  1.268500  0.308515
  1.273500  0.306177
  1.278500  0.311592
  1.283500  0.315143
  1.288500  0.317262
  1.293500  0.325583
  1.298500  0.325936
  1.303500  0.329882
  1.308500  0.334497
  1.313500  0.331583
  1.318500  0.337220
  1.323500  0.342665
  1.328500  0.341510
  1.333500  0.347278
  1.338500  0.346501
  1.343500  0.351683
  1.348500  0.352796
  1.353500  0.357451
  1.358500  0.354407
  1.363500  0.359979
  1.368500  0.358785
  1.373500  0.361239
  1.378500  0.348623
  1.383500  0.302316
  1.388500  0.295582
  1.393500  0.289848
  1.398500  0.292902
  1.403500  0.300590
  1.408500  0.330202
  1.413500  0.346622
  1.418500  0.364834
  1.423500  0.377136
  1.428500  0.378470
  1.433500  0.389785
  1.438500  0.390645
  1.443500  0.395579
  1.448500  0.395884
  1.453500  0.402173
  1.458500  0.409544
  1.463500  0.408928
  1.468500  0.417504
  1.473500  0.420062
  1.478500  0.416188
  1.483500  0.426083
  1.488500  0.413840
  1.493500  0.424193
  1.498500  0.437908
  1.503500  0.430287
  1.508500  0.440493
  1.513500  0.437684
  1.518500  0.436024
  1.523500  0.437447
  1.528500  0.444487
  1.534000  0.447000
  1.540000  0.448302
  1.546000  0.458823
  1.552000  0.453946
  1.558000  0.452625
  1.564000  0.455768
  1.570500  0.454407
  1.577500  0.461114
  1.584500  0.462362
  1.591500  0.470059
  1.598500  0.474557
  1.605500  0.466251
  1.612500  0.474454
  1.619500  0.474993
  1.626500  0.482306
  1.633500  0.477791
  1.640500  0.479797
  1.647500  0.486936
  1.654500  0.481277
  1.661500  0.485501
  1.668500  0.492490
  1.676000  0.488041
  1.684000  0.494760
  1.692000  0.493044
  1.700000  0.495183
  1.708000  0.494956
  1.716000  0.499818
  1.724000  0.497523
  1.732000  0.498535
  1.740000  0.498243
  1.748000  0.488081
  1.756000  0.494685
  1.764000  0.499024
  1.772000  0.502847
  1.780000  0.499099
  1.788000  0.509164
  1.796000  0.498525
  1.805000  0.505611
  1.815000  0.508347
  1.825000  0.501921
  1.835000  0.502712
  1.845000  0.508392
  1.855000  0.503913
  1.865000  0.499107
  1.875000  0.510060
  1.885000  0.503208
  1.895000  0.492941
  1.905000  0.486783
  1.915000  0.476544
  1.925000  0.468135
  1.935000  0.457769
  1.945000  0.459004
  1.955000  0.448400
  1.965000  0.439210
  1.975000  0.436726
  1.985000  0.440452
  1.995000  0.448372
  2.005000  0.448218
  2.015000  0.461220
  2.025000  0.464427
  2.035000  0.471731
  2.045000  0.484605
  2.055000  0.485878
  2.065000  0.488752
  2.075000  0.487781
  2.085000  0.479090
  2.095000  0.463274
  2.105000  0.463769
  2.115000  0.461196
  2.125000  0.464867
  2.135000  0.460387
  2.145000  0.469421
  2.155000  0.472457
  2.165000  0.475832
  2.175000  0.486349
  2.185000  0.482079
  2.195000  0.476718
  2.205000  0.478147
  2.215000  0.467349
  2.225000  0.445420
  2.235000  0.397191
  2.245000  0.380392
  2.255000  0.355748
  2.265000  0.352195
  2.275000  0.326503
  2.285000  0.280702
  2.295000  0.279256
  2.305000  0.240536
  2.315000  0.229374
  2.325000  0.206631
  2.335000  0.229577
  2.345000  0.261746
  2.355000  0.304680
  2.365000  0.315710
  2.375000  0.298636
  2.386000  0.285838
  2.400000  0.288285
  2.418000  0.272022
  2.440000  0.259878
  2.466000  0.252631
  2.496000  0.243768
  2.528000  0.238608
  2.560000  0.252008
