ENVI ASCII Plot File [Wed Jan 07 23:40:38 2026]
Column 1: Wavelength
Column 2: dolomit2.spc Dolomite COD2005~~1
  0.395100  0.676321
  0.397100  0.678375
  0.399100  0.680701
  0.401100  0.683663
  0.403100  0.685805
  0.405100  0.686541
  0.407100  0.687835
  0.409100  0.689869
  0.411100  0.693878
  0.412800  0.695754
  0.415800  0.697211
  0.418800  0.701000
  0.421800  0.702066
  0.424800  0.705561
  0.427800  0.707622
  0.430800  0.710105
  0.433800  0.712911
  0.436800  0.715753
  0.439800  0.719361
  0.442800  0.721228
  0.445800  0.724527
  0.448800  0.727825
  0.451300  0.730757
  0.453300  0.730663
  0.455300  0.731723
  0.457300  0.733706
  0.459300  0.733191
  0.461300  0.735418
  0.463300  0.736308
  0.465300  0.737801
  0.467300  0.739868
  0.469300  0.740451
  0.471300  0.740571
  0.473300  0.742526
  0.475300  0.744163
  0.477300  0.745943
  0.479300  0.746231
  0.481300  0.748598
  0.483300  0.747847
  0.485300  0.750519
  0.487300  0.750623
  0.489300  0.753219
  0.491300  0.753267
  0.493300  0.756262
  0.495300  0.756018
  0.497300  0.758074
  0.499300  0.758103
  0.501300  0.761701
  0.503300  0.761108
  0.505300  0.763787
  0.507300  0.764478
  0.509300  0.766075
  0.511300  0.767656
  0.513300  0.768848
  0.515300  0.770638
  0.517300  0.772902
  0.519300  0.774315
  0.521300  0.777098
  0.523300  0.776545
  0.525300  0.780293
  0.527300  0.780843
  0.529300  0.782595
  0.531300  0.783611
  0.533300  0.786327
  0.535300  0.787972
  0.537300  0.789351
  0.539300  0.790449
  0.541300  0.792020
  0.543300  0.794474
  0.545300  0.796175
  0.547300  0.795387
  0.549300  0.798345
  0.551300  0.799565
  0.553300  0.800622
  0.555300  0.803002
  0.557300  0.804060
  0.559300  0.804227
  0.561300  0.807833
  0.563300  0.808578
  0.565300  0.809175
  0.567300  0.810508
  0.569300  0.812708
  0.571300  0.812699
  0.573300  0.814691
  0.575300  0.818519
  0.577300  0.816699
  0.579300  0.819635
  0.581300  0.819527
  0.583300  0.821960
  0.585300  0.822538
  0.587300  0.822560
  0.589300  0.822729
  0.591300  0.823979
  0.593300  0.825710
  0.595300  0.825907
  0.597300  0.825729
  0.599300  0.827502
  0.601100  0.826492
  0.602700  0.829255
  0.604300  0.827501
  0.605900  0.828391
  0.607500  0.829054
  0.609100  0.830150
  0.610700  0.830050
  0.612300  0.830157
  0.613900  0.831064
  0.615500  0.831968
  0.617100  0.832546
  0.618700  0.832064
  0.620300  0.833143
  0.621900  0.833487
  0.623500  0.833289
  0.625100  0.833082
  0.626700  0.834146
  0.628300  0.835752
  0.629900  0.834666
  0.631700  0.835007
  0.633700  0.835933
  0.635700  0.836306
  0.637700  0.836564
  0.639700  0.836625
  0.641700  0.838086
  0.643700  0.838101
  0.645700  0.839530
  0.647700  0.840335
  0.649700  0.838875
  0.651700  0.840111
  0.653700  0.841096
  0.655700  0.841266
  0.657700  0.842595
  0.659700  0.842559
  0.661700  0.844386
  0.663700  0.845103
  0.665700  0.844906
  0.667700  0.844340
  0.670200  0.844249
  0.673200  0.845948
  0.676200  0.845858
  0.679200  0.847317
  0.682200  0.847182
  0.685200  0.848301
  0.688200  0.847854
  0.691200  0.849017
  0.694200  0.848901
  0.697200  0.851432
  0.700200  0.850059
  0.702000  0.850606
  0.704000  0.850507
  0.706000  0.850376
  0.708000  0.850995
  0.710000  0.851857
  0.712000  0.851533
  0.714000  0.851912
  0.716000  0.854099
  0.718000  0.851839
  0.720000  0.853336
  0.722000  0.854018
  0.724000  0.854339
  0.726000  0.854156
  0.728000  0.855897
  0.730000  0.855500
  0.732000  0.854453
  0.734000  0.854266
  0.736000  0.855805
  0.738000  0.856082
  0.740000  0.856430
  0.742000  0.854605
  0.744000  0.857547
  0.746000  0.856967
  0.748000  0.856857
  0.750500  0.859257
  0.753500  0.857782
  0.756500  0.860185
  0.759500  0.857449
  0.762500  0.858936
  0.765500  0.857891
  0.768500  0.859438
  0.771500  0.858388
  0.774500  0.859653
  0.777500  0.860858
  0.781000  0.860745
  0.785000  0.860029
  0.789000  0.860558
  0.793000  0.858869
  0.797000  0.859724
  0.801500  0.859213
  0.806500  0.859774
  0.811500  0.859212
  0.816500  0.859527
  0.822000  0.859066
  0.828000  0.856817
  0.835000  0.856263
  0.843000  0.855947
  0.851000  0.856100
  0.859000  0.853544
  0.871000  0.847979
  0.883000  0.848724
  0.894000  0.845393
  0.904000  0.841913
  0.914000  0.838305
  0.924000  0.838512
  0.933000  0.834330
  0.941000  0.832181
  0.949000  0.828650
  0.957000  0.826662
  0.964000  0.827174
  0.970000  0.825817
  0.976000  0.825001
  0.982000  0.822427
  0.988000  0.822789
  0.994000  0.820333
  1.000000  0.820085
  1.006000  0.817785
  1.012000  0.818103
  1.018000  0.816609
  1.023500  0.817283
  1.028500  0.817367
  1.033500  0.817751
  1.038500  0.815653
  1.043500  0.818157
  1.048500  0.816620
  1.053500  0.817917
  1.058500  0.818181
  1.063500  0.817650
  1.068500  0.818069
  1.073500  0.819673
  1.078500  0.819402
  1.083500  0.821462
  1.088500  0.820615
  1.093500  0.820927
  1.098500  0.823525
  1.103500  0.822768
  1.108500  0.824253
  1.113500  0.822851
  1.118500  0.826213
  1.123500  0.823669
  1.128500  0.826527
  1.133500  0.825509
  1.138500  0.826792
  1.143500  0.826236
  1.148500  0.827718
  1.153500  0.830335
  1.158500  0.827195
  1.163500  0.826704
  1.168500  0.829544
  1.173500  0.828746
  1.178500  0.828062
  1.183500  0.830729
  1.188500  0.832695
  1.193500  0.830820
  1.198500  0.829254
  1.203500  0.828467
  1.208500  0.829312
  1.213500  0.830315
  1.218500  0.829464
  1.223500  0.830550
  1.228500  0.830834
  1.233500  0.830672
  1.238500  0.831046
  1.243500  0.831472
  1.248500  0.831383
  1.253500  0.831708
  1.258500  0.832086
  1.263500  0.831409
  1.268500  0.831685
  1.273500  0.833352
  1.278500  0.833587
  1.283500  0.831764
  1.288500  0.833176
  1.293500  0.834193
  1.298500  0.834535
  1.303500  0.835234
  1.308500  0.835229
  1.313500  0.835722
  1.318500  0.835745
  1.323500  0.836688
  1.328500  0.837649
  1.333500  0.840177
  1.338500  0.839539
  1.343500  0.840216
  1.348500  0.840392
  1.353500  0.841592
  1.358500  0.842260
  1.363500  0.843784
  1.368500  0.843251
  1.373500  0.845941
  1.378500  0.841325
  1.383500  0.839348
  1.388500  0.833642
  1.393500  0.833336
  1.398500  0.839683
  1.403500  0.845076
  1.408500  0.849227
  1.413500  0.847872
  1.418500  0.848899
  1.423500  0.851685
  1.428500  0.852460
  1.433500  0.853579
  1.438500  0.854123
  1.443500  0.854463
  1.448500  0.857882
  1.453500  0.859230
  1.458500  0.858617
  1.463500  0.861683
  1.468500  0.862845
  1.473500  0.864102
  1.478500  0.864880
  1.483500  0.862113
  1.488500  0.864368
  1.493500  0.866720
  1.498500  0.868181
  1.503500  0.868927
  1.508500  0.871695
  1.513500  0.872999
  1.518500  0.872005
  1.523500  0.873864
  1.528500  0.875682
  1.534000  0.874460
  1.540000  0.874784
  1.546000  0.874672
  1.552000  0.877717
  1.558000  0.877793
  1.564000  0.880231
  1.570500  0.879077
  1.577500  0.878804
  1.584500  0.879761
  1.591500  0.881196
  1.598500  0.882887
  1.605500  0.884553
  1.612500  0.884719
  1.619500  0.884603
  1.626500  0.886132
  1.633500  0.886048
  1.640500  0.883168
  1.647500  0.886147
  1.654500  0.886424
  1.661500  0.886999
  1.668500  0.885521
  1.676000  0.883964
  1.684000  0.882539
  1.692000  0.884284
  1.700000  0.885250
  1.708000  0.887145
  1.716000  0.883100
  1.724000  0.881517
  1.732000  0.883528
  1.740000  0.885227
  1.748000  0.886694
  1.756000  0.886078
  1.764000  0.885642
  1.772000  0.887967
  1.780000  0.886248
  1.788000  0.886842
  1.796000  0.885246
  1.805000  0.881182
  1.815000  0.875786
  1.825000  0.871804
  1.835000  0.869229
  1.845000  0.864094
  1.855000  0.858059
  1.865000  0.855294
  1.875000  0.869253
  1.885000  0.871899
  1.895000  0.864824
  1.905000  0.859587
  1.915000  0.855883
  1.925000  0.850989
  1.935000  0.848650
  1.945000  0.845761
  1.955000  0.845530
  1.965000  0.843912
  1.975000  0.841491
  1.985000  0.840644
  1.995000  0.851099
  2.005000  0.861600
  2.015000  0.869000
  2.025000  0.874631
  2.035000  0.878912
  2.045000  0.878224
  2.055000  0.879444
  2.065000  0.878292
  2.075000  0.879536
  2.085000  0.873958
  2.095000  0.869469
  2.105000  0.864593
  2.115000  0.870332
  2.125000  0.864016
  2.135000  0.856091
  2.145000  0.853893
  2.155000  0.858137
  2.165000  0.858395
  2.175000  0.854903
  2.185000  0.852066
  2.195000  0.846206
  2.205000  0.831501
  2.215000  0.821356
  2.225000  0.809229
  2.235000  0.790993
  2.245000  0.769594
  2.255000  0.741422
  2.265000  0.717888
  2.275000  0.705366
  2.285000  0.699813
  2.295000  0.682575
  2.305000  0.664620
  2.315000  0.648000
  2.325000  0.649648
  2.335000  0.682414
  2.345000  0.738750
  2.355000  0.788466
  2.365000  0.815048
  2.375000  0.815383
  2.386000  0.800349
  2.400000  0.785378
  2.418000  0.757759
  2.440000  0.698077
  2.466000  0.635761
  2.496000  0.580146
  2.528000  0.584361
  2.560000  0.729717
