ENVI ASCII Plot File [Wed Jan 07 23:38:14 2026]
Column 1: Wavelength
Column 2: magnesit.spc Magnesite+Hydroma HS47.3B~~1
  0.395100  0.773315
  0.397100  0.774797
  0.399100  0.777040
  0.401100  0.780739
  0.403100  0.783060
  0.405100  0.785830
  0.407100  0.787271
  0.409100  0.788086
  0.411100  0.792584
  0.412800  0.796992
  0.415800  0.798551
  0.418800  0.802168
  0.421800  0.804876
  0.424800  0.808477
  0.427800  0.811807
  0.430800  0.816915
  0.433800  0.821132
  0.436800  0.824732
  0.439800  0.829735
  0.442800  0.832709
  0.445800  0.837851
  0.448800  0.840724
  0.451300  0.843634
  0.453300  0.847213
  0.455300  0.848846
  0.457300  0.851799
  0.459300  0.852469
  0.461300  0.855970
  0.463300  0.859073
  0.465300  0.859638
  0.467300  0.861205
  0.469300  0.863455
  0.471300  0.864927
  0.473300  0.866299
  0.475300  0.867886
  0.477300  0.870140
  0.479300  0.870189
  0.481300  0.871017
  0.483300  0.873097
  0.485300  0.875440
  0.487300  0.876269
  0.489300  0.879307
  0.491300  0.880134
  0.493300  0.880085
  0.495300  0.885431
  0.497300  0.887016
  0.499300  0.887735
  0.501300  0.889321
  0.503300  0.889951
  0.505300  0.893070
  0.507300  0.896085
  0.509300  0.896112
  0.511300  0.898365
  0.513300  0.898456
  0.515300  0.900635
  0.517300  0.902960
  0.519300  0.904515
  0.521300  0.904438
  0.523300  0.907467
  0.525300  0.907464
  0.527300  0.907390
  0.529300  0.907378
  0.531300  0.909635
  0.533300  0.909681
  0.535300  0.913434
  0.537300  0.915739
  0.539300  0.919548
  0.541300  0.920321
  0.543300  0.921144
  0.545300  0.922622
  0.547300  0.921949
  0.549300  0.922776
  0.551300  0.921992
  0.553300  0.923648
  0.555300  0.924403
  0.557300  0.926721
  0.559300  0.927490
  0.561300  0.927534
  0.563300  0.929080
  0.565300  0.929853
  0.567300  0.930625
  0.569300  0.933615
  0.571300  0.934392
  0.573300  0.935170
  0.575300  0.933580
  0.577300  0.937362
  0.579300  0.937369
  0.581300  0.939653
  0.583300  0.941165
  0.585300  0.941947
  0.587300  0.943543
  0.589300  0.941955
  0.591300  0.946619
  0.593300  0.943597
  0.595300  0.945927
  0.597300  0.944419
  0.599300  0.943646
  0.601100  0.941366
  0.602700  0.943723
  0.604300  0.943763
  0.605900  0.942262
  0.607500  0.941531
  0.609100  0.940028
  0.610700  0.942386
  0.612300  0.941656
  0.613900  0.941656
  0.615500  0.941693
  0.617100  0.940926
  0.618700  0.941693
  0.620300  0.939426
  0.621900  0.943270
  0.623500  0.944809
  0.625100  0.941734
  0.626700  0.943271
  0.628300  0.944040
  0.629900  0.942576
  0.631700  0.944115
  0.633700  0.942580
  0.635700  0.944842
  0.637700  0.944112
  0.639700  0.945610
  0.641700  0.945613
  0.643700  0.944066
  0.645700  0.946338
  0.647700  0.947105
  0.649700  0.947097
  0.651700  0.947871
  0.653700  0.946328
  0.655700  0.947101
  0.657700  0.948677
  0.659700  0.948631
  0.661700  0.948598
  0.663700  0.944026
  0.665700  0.948609
  0.667700  0.949331
  0.670200  0.948600
  0.673200  0.946257
  0.676200  0.950073
  0.679200  0.948527
  0.682200  0.947758
  0.685200  0.952289
  0.688200  0.952288
  0.691200  0.950778
  0.694200  0.953060
  0.697200  0.951452
  0.700200  0.952219
  0.702000  0.953742
  0.704000  0.955253
  0.706000  0.953670
  0.708000  0.952129
  0.710000  0.948946
  0.712000  0.950498
  0.714000  0.952802
  0.716000  0.952022
  0.718000  0.952706
  0.720000  0.950401
  0.722000  0.951887
  0.724000  0.952634
  0.726000  0.951819
  0.728000  0.954101
  0.730000  0.953318
  0.732000  0.952534
  0.734000  0.951719
  0.736000  0.951719
  0.738000  0.953215
  0.740000  0.953185
  0.742000  0.952368
  0.744000  0.953877
  0.746000  0.950728
  0.748000  0.953844
  0.750500  0.951483
  0.753500  0.954605
  0.756500  0.952957
  0.759500  0.951343
  0.762500  0.956023
  0.765500  0.955989
  0.768500  0.955137
  0.771500  0.957457
  0.774500  0.958223
  0.777500  0.957428
  0.781000  0.956574
  0.785000  0.956542
  0.789000  0.958079
  0.793000  0.958019
  0.797000  0.960363
  0.801500  0.960309
  0.806500  0.962666
  0.811500  0.963394
  0.816500  0.962540
  0.822000  0.964865
  0.828000  0.964865
  0.835000  0.964865
  0.843000  0.964865
  0.851000  0.980385
  0.859000  0.983791
  0.871000  0.982924
  0.883000  0.984621
  0.894000  0.986310
  0.904000  0.985476
  0.914000  0.982892
  0.924000  0.985446
  0.933000  0.983746
  0.941000  0.982028
  0.949000  0.979427
  0.957000  0.983705
  0.964000  0.981134
  0.970000  0.981137
  0.976000  0.981126
  0.982000  0.980275
  0.988000  0.980275
  0.994000  0.979411
  1.000000  0.981975
  1.006000  0.980264
  1.012000  0.982818
  1.018000  0.980232
  1.023500  0.986251
  1.028500  0.981106
  1.033500  0.981983
  1.038500  0.981959
  1.043500  0.981943
  1.048500  0.981077
  1.053500  0.981081
  1.058500  0.981064
  1.063500  0.978478
  1.068500  0.979326
  1.073500  0.977604
  1.078500  0.983615
  1.083500  0.981036
  1.088500  0.978451
  1.093500  0.979307
  1.098500  0.981054
  1.103500  0.981051
  1.108500  0.977633
  1.113500  0.978518
  1.118500  0.980258
  1.123500  0.978551
  1.128500  0.978547
  1.133500  0.975974
  1.138500  0.975908
  1.143500  0.973307
  1.148500  0.972405
  1.153500  0.969732
  1.158500  0.970497
  1.163500  0.967821
  1.168500  0.971129
  1.173500  0.970146
  1.178500  0.967461
  1.183500  0.970825
  1.188500  0.972421
  1.193500  0.970577
  1.198500  0.968773
  1.203500  0.970459
  1.208500  0.969585
  1.213500  0.968712
  1.218500  0.970404
  1.223500  0.969577
  1.228500  0.970467
  1.233500  0.969595
  1.238500  0.967924
  1.243500  0.968764
  1.248500  0.969580
  1.253500  0.970408
  1.258500  0.969511
  1.263500  0.970287
  1.268500  0.966736
  1.273500  0.968357
  1.278500  0.969103
  1.283500  0.966402
  1.288500  0.968857
  1.293500  0.968740
  1.298500  0.966037
  1.303500  0.967627
  1.308500  0.965770
  1.313500  0.964769
  1.318500  0.962924
  1.323500  0.962815
  1.328500  0.960081
  1.333500  0.959991
  1.338500  0.959015
  1.343500  0.957203
  1.348500  0.952826
  1.353500  0.954471
  1.358500  0.952652
  1.363500  0.950018
  1.368500  0.948287
  1.373500  0.939601
  1.378500  0.932617
  1.383500  0.904032
  1.388500  0.880500
  1.393500  0.893637
  1.398500  0.894573
  1.403500  0.887613
  1.408500  0.875511
  1.413500  0.872044
  1.418500  0.872096
  1.423500  0.870499
  1.428500  0.873087
  1.433500  0.872414
  1.438500  0.875029
  1.443500  0.876862
  1.448500  0.876054
  1.453500  0.873384
  1.458500  0.875066
  1.463500  0.872647
  1.468500  0.874388
  1.473500  0.875996
  1.478500  0.876883
  1.483500  0.875999
  1.488500  0.877928
  1.493500  0.877563
  1.498500  0.876098
  1.503500  0.876374
  1.508500  0.877172
  1.513500  0.875246
  1.518500  0.874557
  1.523500  0.875488
  1.528500  0.877124
  1.534000  0.877042
  1.540000  0.876944
  1.546000  0.880351
  1.552000  0.879676
  1.558000  0.880694
  1.564000  0.882340
  1.570500  0.883805
  1.577500  0.882271
  1.584500  0.886522
  1.591500  0.887304
  1.598500  0.887367
  1.605500  0.886335
  1.612500  0.885428
  1.619500  0.886174
  1.626500  0.886854
  1.633500  0.884977
  1.640500  0.885723
  1.647500  0.885646
  1.654500  0.884546
  1.661500  0.884477
  1.668500  0.883373
  1.676000  0.883140
  1.684000  0.882248
  1.692000  0.884750
  1.700000  0.881183
  1.708000  0.885191
  1.716000  0.880076
  1.724000  0.874910
  1.732000  0.876575
  1.740000  0.879311
  1.748000  0.881026
  1.756000  0.879420
  1.764000  0.877584
  1.772000  0.871554
  1.780000  0.874916
  1.788000  0.877729
  1.796000  0.872144
  1.805000  0.869225
  1.815000  0.866391
  1.825000  0.859526
  1.835000  0.860261
  1.845000  0.853532
  1.855000  0.852286
  1.865000  0.844579
  1.875000  0.823722
  1.885000  0.785117
  1.895000  0.731985
  1.905000  0.687987
  1.915000  0.681137
  1.925000  0.689489
  1.935000  0.703387
  1.945000  0.705385
  1.955000  0.707151
  1.965000  0.702588
  1.975000  0.699631
  1.985000  0.701397
  1.995000  0.705032
  2.005000  0.704844
  2.015000  0.711717
  2.025000  0.709837
  2.035000  0.713366
  2.045000  0.720439
  2.055000  0.717457
  2.065000  0.721716
  2.075000  0.729413
  2.085000  0.732741
  2.095000  0.736184
  2.105000  0.744832
  2.115000  0.752613
  2.125000  0.756407
  2.135000  0.769322
  2.145000  0.767257
  2.155000  0.775051
  2.165000  0.780612
  2.175000  0.782210
  2.185000  0.773562
  2.195000  0.775394
  2.205000  0.762565
  2.215000  0.761823
  2.225000  0.750461
  2.235000  0.741069
  2.245000  0.721957
  2.255000  0.708582
  2.265000  0.694725
  2.275000  0.681317
  2.285000  0.666251
  2.295000  0.663683
  2.305000  0.644426
  2.315000  0.649129
  2.325000  0.690168
  2.335000  0.708718
  2.345000  0.714755
  2.355000  0.706826
  2.365000  0.693198
  2.375000  0.678351
  2.386000  0.660435
  2.400000  0.644531
  2.418000  0.622406
  2.440000  0.584097
  2.466000  0.544276
  2.496000  0.522378
  2.528000  0.547878
  2.560000  0.581850
