ENVI ASCII Plot File [Wed Jan 07 23:06:24 2026]
Column 1: Wavelength
Column 2: Reflectance (EMIT_L2A_RFL_001_20240623T082158_2417506_019.nc) (556,605)~~2##255,0,0
   381.005585   0.049458
   388.409210   0.058069
   395.815826   0.064447
   403.225403   0.070739
   410.638000   0.077257
   418.053589   0.083988
   425.472137   0.087722
   432.892700   0.092919
   440.317261   0.096704
   447.742798   0.100667
   455.170349   0.104656
   462.598877   0.107945
   470.030396   0.110911
   477.462921   0.112828
   484.897430   0.114977
   492.332916   0.117091
   499.771423   0.120048
   507.209900   0.124090
   514.650391   0.126979
   522.090881   0.129531
   529.533325   0.132055
   536.976807   0.134960
   544.421265   0.136525
   551.866699   0.138762
   559.314209   0.139834
   566.761597   0.140060
   574.209045   0.139975
   581.658508   0.140329
   589.107971   0.140338
   596.558350   0.140364
   604.009827   0.140171
   611.462219   0.139523
   618.914612   0.138479
   626.368042   0.137610
   633.821472   0.137671
   641.275879   0.137619
   648.730286   0.137315
   656.185730   0.137597
   663.641113   0.136398
   671.097534   0.137679
   678.553894   0.137877
   686.010315   0.137021
   693.467712   0.137845
   700.925110   0.138867
   708.383545   0.139776
   715.840942   0.140583
   723.299316   0.142258
   730.758728   0.143089
   738.217102   0.143467
   745.676514   0.145530
   753.135925   0.146787
   760.596313   0.147881
   768.055725   0.149066
   775.516113   0.150212
   782.977539   0.151077
   790.437927   0.151788
   797.899353   0.152396
   805.361755   0.152811
   812.823181   0.153030
   820.284607   0.153209
   827.745972   0.153304
   835.207397   0.153362
   842.669861   0.153319
   850.131287   0.153236
   857.593689   0.153175
   865.055115   0.153062
   872.517578   0.152935
   879.980042   0.152828
   887.441467   0.152726
   894.903931   0.152713
   902.366394   0.152752
   909.828857   0.152708
   917.291321   0.152733
   924.753784   0.152690
   932.216248   0.152735
   939.678772   0.152860
   947.140259   0.152938
   954.602722   0.152998
   962.064270   0.153120
   969.526794   0.153259
   976.988281   0.153357
   984.449829   0.152708
   991.911377   0.152902
   999.372864   0.153120
  1006.834412   0.153428
  1014.294983   0.153714
  1021.756592   0.154069
  1029.217163   0.154472
  1036.677734   0.154919
  1044.138306   0.155289
  1051.598877   0.155793
  1059.059570   0.156297
  1066.520142   0.156819
  1073.979736   0.157440
  1081.440430   0.158064
  1088.900024   0.158858
  1096.359741   0.159577
  1103.818359   0.160264
  1111.278076   0.160973
  1118.736816   0.161680
  1126.196411   0.162521
  1133.655151   0.163567
  1141.112915   0.164561
  1148.571655   0.165638
  1156.030396   0.166776
  1163.488159   0.167846
  1170.945923   0.168876
  1178.403687   0.169878
  1185.861572   0.170898
  1193.318359   0.171857
  1200.776123   0.172828
  1208.233032   0.173760
  1215.689819   0.174736
  1223.146729   0.175630
  1230.603638   0.176567
  1238.059570   0.177503
  1245.515381   0.178281
  1252.972412   0.179109
  1260.428345   0.179947
  1267.883301   0.180837
  1275.339233   0.181695
  1282.794189   0.182527
  1290.250244   0.183350
  1297.705200   0.184171
  1305.160278   0.185018
  1312.614380   0.185861
  1320.068481   0.186703
  1327.522461  -0.010000
  1334.975586  -0.010000
  1342.428711  -0.010000
  1349.881836  -0.010000
  1357.335083  -0.010000
  1364.787231  -0.010000
  1372.238403  -0.010000
  1379.690674  -0.010000
  1387.141846  -0.010000
  1394.593140  -0.010000
  1402.043335  -0.010000
  1409.493652  -0.010000
  1416.943970  -0.010000
  1424.393311  -0.010000
  1431.842651  -0.010000
  1439.291992   0.211786
  1446.740356   0.210426
  1454.188843   0.214944
  1461.637207   0.215706
  1469.084717   0.214713
  1476.532104   0.214860
  1483.979614   0.216541
  1491.426147   0.215497
  1498.872681   0.216544
  1506.319214   0.216226
  1513.764893   0.218231
  1521.210449   0.220107
  1528.655029   0.220402
  1536.100708   0.222309
  1543.545410   0.224277
  1550.989136   0.225283
  1558.432861   0.226840
  1565.876587   0.227119
  1573.319336   0.226097
  1580.762085   0.227858
  1588.204956   0.231013
  1595.646729   0.230873
  1603.088623   0.230266
  1610.529541   0.231360
  1617.970459   0.233424
  1625.410400   0.234791
  1632.851318   0.235635
  1640.290283   0.236181
  1647.730347   0.237098
  1655.169434   0.236891
  1662.607422   0.238352
  1670.045532   0.239268
  1677.483643   0.239399
  1684.920898   0.239417
  1692.358032   0.239465
  1699.795166   0.240187
  1707.231445   0.239719
  1714.666748   0.239237
  1722.103027   0.239352
  1729.538330   0.239880
  1736.972656   0.239823
  1744.407104   0.240321
  1751.841431   0.239789
  1759.274902   0.240740
  1766.708374   0.240005
  1774.141846  -0.010000
  1781.574341  -0.010000
  1789.006958  -0.010000
  1796.438477  -0.010000
  1803.870117  -0.010000
  1811.300781  -0.010000
  1818.731445  -0.010000
  1826.161133  -0.010000
  1833.590942  -0.010000
  1841.020630  -0.010000
  1848.449463  -0.010000
  1855.877319  -0.010000
  1863.305176  -0.010000
  1870.733032  -0.010000
  1878.160034  -0.010000
  1885.586914  -0.010000
  1893.012939  -0.010000
  1900.438965  -0.010000
  1907.864014  -0.010000
  1915.289185  -0.010000
  1922.713257  -0.010000
  1930.137451  -0.010000
  1937.560669  -0.010000
  1944.983887  -0.010000
  1952.407104  -0.010000
  1959.829468  -0.010000
  1967.251831   0.187949
  1974.673218   0.190059
  1982.094604   0.192209
  1989.515015   0.194183
  1996.935547   0.195859
  2004.354980   0.198448
  2011.774536   0.200990
  2019.193115   0.203550
  2026.611816   0.205393
  2034.030396   0.207049
  2041.447144   0.208383
  2048.864990   0.209524
  2056.280762   0.210412
  2063.696533   0.211384
  2071.112305   0.212866
  2078.527344   0.214109
  2085.942139   0.213451
  2093.356201   0.213517
  2100.769043   0.213345
  2108.182129   0.211368
  2115.594238   0.212152
  2123.006348   0.213581
  2130.417480   0.215281
  2137.828857   0.215063
  2145.239014   0.213901
  2152.648193   0.213189
  2160.057617   0.210446
  2167.467041   0.207717
  2174.875488   0.207119
  2182.282959   0.206258
  2189.690430   0.201527
  2197.096924   0.198086
  2204.503418   0.191725
  2211.909180   0.190180
  2219.314697   0.190504
  2226.719482   0.188676
  2234.123291   0.187464
  2241.526855   0.185764
  2248.929688   0.181705
  2256.332764   0.181266
  2263.734619   0.180630
  2271.136475   0.179461
  2278.537598   0.174899
  2285.938721   0.169998
  2293.338623   0.163019
  2300.737793   0.157061
  2308.135986   0.155674
  2315.534180   0.150568
  2322.932617   0.150663
  2330.329834   0.152542
  2337.726318   0.152574
  2345.121582   0.150079
  2352.517090   0.150544
  2359.912598   0.153128
  2367.307129   0.150729
  2374.700684   0.146857
  2382.093506   0.146897
  2389.486084   0.144585
  2396.877930   0.140982
  2404.269531   0.139010
  2411.660400   0.140794
  2419.051270   0.138188
  2426.440186   0.131501
  2433.830322   0.127996
  2441.218262   0.123789
  2448.606445   0.124643
  2455.994385   0.114339
  2463.381592   0.108622
  2470.767822   0.108210
  2478.153076   0.110936
  2485.538574   0.105495
  2492.923828   0.099329
