ENVI ASCII Plot File [Wed Jan 07 23:05:22 2026]
Column 1: Wavelength
Column 2: Reflectance (EMIT_L2A_RFL_001_20240623T082158_2417506_019.nc) (248,269)~~2##255,0,0
   381.005585   0.375461
   388.409210   0.400280
   395.815826   0.422230
   403.225403   0.445873
   410.638000   0.465980
   418.053589   0.486485
   425.472137   0.505952
   432.892700   0.518194
   440.317261   0.531029
   447.742798   0.543966
   455.170349   0.557109
   462.598877   0.566141
   470.030396   0.577452
   477.462921   0.584415
   484.897430   0.592199
   492.332916   0.599139
   499.771423   0.608601
   507.209900   0.617943
   514.650391   0.625192
   522.090881   0.628508
   529.533325   0.618466
   536.976807   0.623311
   544.421265   0.628486
   551.866699   0.635270
   559.314209   0.638794
   566.761597   0.646762
   574.209045   0.671865
   581.658508   0.649537
   589.107971   0.678894
   596.558350   0.681376
   604.009827   0.652740
   611.462219   0.688998
   618.914612   0.689115
   626.368042   0.690208
   633.821472   0.690676
   641.275879   0.695944
   648.730286   0.693887
   656.185730   0.700323
   663.641113   0.697806
   671.097534   0.705412
   678.553894   0.673350
   686.010315   0.710244
   693.467712   0.709478
   700.925110   0.676264
   708.383545   0.680968
   715.840942   0.679766
   723.299316   0.723152
   730.758728   0.721021
   738.217102   0.686597
   745.676514   0.694709
   753.135925   0.697650
   760.596313   0.713314
   768.055725   0.710113
   775.516113   0.708553
   782.977539   0.710982
   790.437927   0.713365
   797.899353   0.716431
   805.361755   0.725032
   812.823181   0.728144
   820.284607   0.729148
   827.745972   0.729709
   835.207397   0.730798
   842.669861   0.730368
   850.131287   0.730937
   857.593689   0.730707
   865.055115   0.731679
   872.517578   0.731074
   879.980042   0.730732
   887.441467   0.730415
   894.903931   0.731720
   902.366394   0.732395
   909.828857   0.732071
   917.291321   0.732320
   924.753784   0.731559
   932.216248   0.731853
   939.678772   0.731345
   947.140259   0.731319
   954.602722   0.730901
   962.064270   0.730752
   969.526794   0.731770
   976.988281   0.732287
   984.449829   0.725543
   991.911377   0.723820
   999.372864   0.724633
  1006.834412   0.725586
  1014.294983   0.728281
  1021.756592   0.730362
  1029.217163   0.732790
  1036.677734   0.733767
  1044.138306   0.735526
  1051.598877   0.737952
  1059.059570   0.738722
  1066.520142   0.740135
  1073.979736   0.743549
  1081.440430   0.744827
  1088.900024   0.747500
  1096.359741   0.749449
  1103.818359   0.751162
  1111.278076   0.751208
  1118.736816   0.752656
  1126.196411   0.752600
  1133.655151   0.751921
  1141.112915   0.750856
  1148.571655   0.748547
  1156.030396   0.745922
  1163.488159   0.743070
  1170.945923   0.742304
  1178.403687   0.740950
  1185.861572   0.740371
  1193.318359   0.736694
  1200.776123   0.736315
  1208.233032   0.736496
  1215.689819   0.736948
  1223.146729   0.737676
  1230.603638   0.737408
  1238.059570   0.740153
  1245.515381   0.740053
  1252.972412   0.740663
  1260.428345   0.741061
  1267.883301   0.741255
  1275.339233   0.741184
  1282.794189   0.741357
  1290.250244   0.741571
  1297.705200   0.741480
  1305.160278   0.740766
  1312.614380   0.739184
  1320.068481   0.736653
  1327.522461  -0.010000
  1334.975586  -0.010000
  1342.428711  -0.010000
  1349.881836  -0.010000
  1357.335083  -0.010000
  1364.787231  -0.010000
  1372.238403  -0.010000
  1379.690674  -0.010000
  1387.141846  -0.010000
  1394.593140  -0.010000
  1402.043335  -0.010000
  1409.493652  -0.010000
  1416.943970  -0.010000
  1424.393311  -0.010000
  1431.842651  -0.010000
  1439.291992   0.537267
  1446.740356   0.545405
  1454.188843   0.534249
  1461.637207   0.520838
  1469.084717   0.535555
  1476.532104   0.553446
  1483.979614   0.560677
  1491.426147   0.559503
  1498.872681   0.556864
  1506.319214   0.558497
  1513.764893   0.561730
  1521.210449   0.565375
  1528.655029   0.567503
  1536.100708   0.568925
  1543.545410   0.572454
  1550.989136   0.575755
  1558.432861   0.578072
  1565.876587   0.578741
  1573.319336   0.580834
  1580.762085   0.586525
  1588.204956   0.593621
  1595.646729   0.594023
  1603.088623   0.589907
  1610.529541   0.590927
  1617.970459   0.592696
  1625.410400   0.590379
  1632.851318   0.589729
  1640.290283   0.583900
  1647.730347   0.580636
  1655.169434   0.574341
  1662.607422   0.569452
  1670.045532   0.564971
  1677.483643   0.559178
  1684.920898   0.554902
  1692.358032   0.547772
  1699.795166   0.539141
  1707.231445   0.533557
  1714.666748   0.526899
  1722.103027   0.523774
  1729.538330   0.517301
  1736.972656   0.512204
  1744.407104   0.509827
  1751.841431   0.503462
  1759.274902   0.500358
  1766.708374   0.499159
  1774.141846  -0.010000
  1781.574341  -0.010000
  1789.006958  -0.010000
  1796.438477  -0.010000
  1803.870117  -0.010000
  1811.300781  -0.010000
  1818.731445  -0.010000
  1826.161133  -0.010000
  1833.590942  -0.010000
  1841.020630  -0.010000
  1848.449463  -0.010000
  1855.877319  -0.010000
  1863.305176  -0.010000
  1870.733032  -0.010000
  1878.160034  -0.010000
  1885.586914  -0.010000
  1893.012939  -0.010000
  1900.438965  -0.010000
  1907.864014  -0.010000
  1915.289185  -0.010000
  1922.713257  -0.010000
  1930.137451  -0.010000
  1937.560669  -0.010000
  1944.983887  -0.010000
  1952.407104  -0.010000
  1959.829468  -0.010000
  1967.251831   0.288620
  1974.673218   0.292594
  1982.094604   0.295628
  1989.515015   0.297749
  1996.935547   0.299254
  2004.354980   0.305773
  2011.774536   0.311624
  2019.193115   0.317003
  2026.611816   0.319030
  2034.030396   0.322894
  2041.447144   0.326513
  2048.864990   0.331465
  2056.280762   0.333971
  2063.696533   0.334929
  2071.112305   0.344932
  2078.527344   0.337939
  2085.942139   0.341211
  2093.356201   0.339507
  2100.769043   0.337412
  2108.182129   0.334750
  2115.594238   0.339701
  2123.006348   0.345580
  2130.417480   0.344862
  2137.828857   0.346853
  2145.239014   0.349120
  2152.648193   0.349726
  2160.057617   0.345354
  2167.467041   0.344876
  2174.875488   0.344544
  2182.282959   0.343000
  2189.690430   0.338616
  2197.096924   0.337839
  2204.503418   0.327759
  2211.909180   0.331660
  2219.314697   0.331871
  2226.719482   0.328209
  2234.123291   0.324363
  2241.526855   0.316809
  2248.929688   0.300819
  2256.332764   0.292136
  2263.734619   0.286149
  2271.136475   0.280381
  2278.537598   0.271868
  2285.938721   0.272067
  2293.338623   0.270166
  2300.737793   0.265871
  2308.135986   0.255953
  2315.534180   0.243821
  2322.932617   0.233679
  2330.329834   0.228761
  2337.726318   0.222956
  2345.121582   0.217648
  2352.517090   0.214784
  2359.912598   0.210129
  2367.307129   0.211300
  2374.700684   0.207984
  2382.093506   0.207518
  2389.486084   0.204428
  2396.877930   0.199367
  2404.269531   0.194763
  2411.660400   0.188236
  2419.051270   0.181694
  2426.440186   0.174015
  2433.830322   0.172071
  2441.218262   0.167403
  2448.606445   0.173870
  2455.994385   0.160841
  2463.381592   0.156626
  2470.767822   0.163164
  2478.153076   0.142835
  2485.538574   0.112500
  2492.923828   0.090260
