ENVI ASCII Plot File [Wed Jan 07 23:18:34 2026]
Column 1: Wavelength
Column 2: Reflectance (EMIT_L2A_RFL_001_20240623T082158_2417506_019.nc) (360,772)~~2##255,0,0
   381.005585   0.055059
   388.409210   0.062486
   395.815826   0.070859
   403.225403   0.076858
   410.638000   0.083640
   418.053589   0.089920
   425.472137   0.094716
   432.892700   0.097993
   440.317261   0.101613
   447.742798   0.105270
   455.170349   0.109797
   462.598877   0.112744
   470.030396   0.115902
   477.462921   0.118185
   484.897430   0.121029
   492.332916   0.123582
   499.771423   0.128397
   507.209900   0.131432
   514.650391   0.135212
   522.090881   0.137479
   529.533325   0.140918
   536.976807   0.144051
   544.421265   0.146755
   551.866699   0.150327
   559.314209   0.154192
   566.761597   0.156397
   574.209045   0.158482
   581.658508   0.161399
   589.107971   0.163910
   596.558350   0.166627
   604.009827   0.169632
   611.462219   0.172306
   618.914612   0.175078
   626.368042   0.176964
   633.821472   0.180039
   641.275879   0.181852
   648.730286   0.185073
   656.185730   0.186719
   663.641113   0.189514
   671.097534   0.193305
   678.553894   0.196217
   686.010315   0.197913
   693.467712   0.200613
   700.925110   0.205769
   708.383545   0.209066
   715.840942   0.212371
   723.299316   0.216491
   730.758728   0.219101
   738.217102   0.223285
   745.676514   0.226475
   753.135925   0.229421
   760.596313   0.232662
   768.055725   0.235164
   775.516113   0.238124
   782.977539   0.240577
   790.437927   0.242814
   797.899353   0.245006
   805.361755   0.247141
   812.823181   0.248984
   820.284607   0.251000
   827.745972   0.252841
   835.207397   0.254768
   842.669861   0.256573
   850.131287   0.258306
   857.593689   0.259982
   865.055115   0.261680
   872.517578   0.263263
   879.980042   0.264864
   887.441467   0.266441
   894.903931   0.267804
   902.366394   0.269493
   909.828857   0.271047
   917.291321   0.272662
   924.753784   0.274124
   932.216248   0.275758
   939.678772   0.277397
   947.140259   0.279067
   954.602722   0.280701
   962.064270   0.282399
   969.526794   0.284128
   976.988281   0.285797
   984.449829   0.287377
   991.911377   0.289014
   999.372864   0.290739
  1006.834412   0.292566
  1014.294983   0.294315
  1021.756592   0.296310
  1029.217163   0.298075
  1036.677734   0.299866
  1044.138306   0.301551
  1051.598877   0.303360
  1059.059570   0.305009
  1066.520142   0.306707
  1073.979736   0.308887
  1081.440430   0.310580
  1088.900024   0.312231
  1096.359741   0.313893
  1103.818359   0.315569
  1111.278076   0.316983
  1118.736816   0.318549
  1126.196411   0.320071
  1133.655151   0.321433
  1141.112915   0.322596
  1148.571655   0.323588
  1156.030396   0.324469
  1163.488159   0.325444
  1170.945923   0.326680
  1178.403687   0.327702
  1185.861572   0.328849
  1193.318359   0.329965
  1200.776123   0.331372
  1208.233032   0.332551
  1215.689819   0.334195
  1223.146729   0.336073
  1230.603638   0.337780
  1238.059570   0.339839
  1245.515381   0.341618
  1252.972412   0.343545
  1260.428345   0.345317
  1267.883301   0.347089
  1275.339233   0.348810
  1282.794189   0.350588
  1290.250244   0.352354
  1297.705200   0.353989
  1305.160278   0.355471
  1312.614380   0.356705
  1320.068481   0.357656
  1327.522461  -0.010000
  1334.975586  -0.010000
  1342.428711  -0.010000
  1349.881836  -0.010000
  1357.335083  -0.010000
  1364.787231  -0.010000
  1372.238403  -0.010000
  1379.690674  -0.010000
  1387.141846  -0.010000
  1394.593140  -0.010000
  1402.043335  -0.010000
  1409.493652  -0.010000
  1416.943970  -0.010000
  1424.393311  -0.010000
  1431.842651  -0.010000
  1439.291992   0.337272
  1446.740356   0.338106
  1454.188843   0.340654
  1461.637207   0.344724
  1469.084717   0.341627
  1476.532104   0.343940
  1483.979614   0.347226
  1491.426147   0.345980
  1498.872681   0.345795
  1506.319214   0.345675
  1513.764893   0.348604
  1521.210449   0.351048
  1528.655029   0.355103
  1536.100708   0.355277
  1543.545410   0.358244
  1550.989136   0.361104
  1558.432861   0.359666
  1565.876587   0.361709
  1573.319336   0.359937
  1580.762085   0.363233
  1588.204956   0.366411
  1595.646729   0.367357
  1603.088623   0.367832
  1610.529541   0.370335
  1617.970459   0.374393
  1625.410400   0.377731
  1632.851318   0.378708
  1640.290283   0.379352
  1647.730347   0.380105
  1655.169434   0.380271
  1662.607422   0.379846
  1670.045532   0.380613
  1677.483643   0.378697
  1684.920898   0.376817
  1692.358032   0.376090
  1699.795166   0.374024
  1707.231445   0.372981
  1714.666748   0.370985
  1722.103027   0.370387
  1729.538330   0.368891
  1736.972656   0.371103
  1744.407104   0.372118
  1751.841431   0.373825
  1759.274902   0.373240
  1766.708374   0.375659
  1774.141846  -0.010000
  1781.574341  -0.010000
  1789.006958  -0.010000
  1796.438477  -0.010000
  1803.870117  -0.010000
  1811.300781  -0.010000
  1818.731445  -0.010000
  1826.161133  -0.010000
  1833.590942  -0.010000
  1841.020630  -0.010000
  1848.449463  -0.010000
  1855.877319  -0.010000
  1863.305176  -0.010000
  1870.733032  -0.010000
  1878.160034  -0.010000
  1885.586914  -0.010000
  1893.012939  -0.010000
  1900.438965  -0.010000
  1907.864014  -0.010000
  1915.289185  -0.010000
  1922.713257  -0.010000
  1930.137451  -0.010000
  1937.560669  -0.010000
  1944.983887  -0.010000
  1952.407104  -0.010000
  1959.829468  -0.010000
  1967.251831   0.353897
  1974.673218   0.356035
  1982.094604   0.357813
  1989.515015   0.358531
  1996.935547   0.358040
  2004.354980   0.356347
  2011.774536   0.353679
  2019.193115   0.349830
  2026.611816   0.346063
  2034.030396   0.341396
  2041.447144   0.337237
  2048.864990   0.333421
  2056.280762   0.329621
  2063.696533   0.326839
  2071.112305   0.322688
  2078.527344   0.320272
  2085.942139   0.317618
  2093.356201   0.316215
  2100.769043   0.313998
  2108.182129   0.311318
  2115.594238   0.312537
  2123.006348   0.315801
  2130.417480   0.318883
  2137.828857   0.317306
  2145.239014   0.320968
  2152.648193   0.320429
  2160.057617   0.316834
  2167.467041   0.318519
  2174.875488   0.317333
  2182.282959   0.317766
  2189.690430   0.317929
  2197.096924   0.317229
  2204.503418   0.316059
  2211.909180   0.317202
  2219.314697   0.315466
  2226.719482   0.316233
  2234.123291   0.311053
  2241.526855   0.303081
  2248.929688   0.295667
  2256.332764   0.288484
  2263.734619   0.281744
  2271.136475   0.278463
  2278.537598   0.272605
  2285.938721   0.270401
  2293.338623   0.267453
  2300.737793   0.263480
  2308.135986   0.262246
  2315.534180   0.257049
  2322.932617   0.258300
  2330.329834   0.256271
  2337.726318   0.256135
  2345.121582   0.252780
  2352.517090   0.250699
  2359.912598   0.256994
  2367.307129   0.257250
  2374.700684   0.255906
  2382.093506   0.258799
  2389.486084   0.258945
  2396.877930   0.254946
  2404.269531   0.251615
  2411.660400   0.251692
  2419.051270   0.251550
  2426.440186   0.238405
  2433.830322   0.238170
  2441.218262   0.223672
  2448.606445   0.229033
  2455.994385   0.205395
  2463.381592   0.193642
  2470.767822   0.195589
  2478.153076   0.177310
  2485.538574   0.152198
  2492.923828   0.135536
