ENVI ASCII Plot File [Wed Jan 07 23:17:27 2026]
Column 1: Wavelength
Column 2: Reflectance (EMIT_L2A_RFL_001_20240623T082158_2417506_019.nc) (652,1018)~~2##255,0,0
   381.005585   0.035994
   388.409210   0.041448
   395.815826   0.047895
   403.225403   0.052078
   410.638000   0.058133
   418.053589   0.063529
   425.472137   0.067174
   432.892700   0.069113
   440.317261   0.072347
   447.742798   0.075436
   455.170349   0.078527
   462.598877   0.080741
   470.030396   0.082361
   477.462921   0.083928
   484.897430   0.085957
   492.332916   0.088115
   499.771423   0.091986
   507.209900   0.095596
   514.650391   0.099724
   522.090881   0.104902
   529.533325   0.109252
   536.976807   0.114076
   544.421265   0.118077
   551.866699   0.122548
   559.314209   0.127149
   566.761597   0.129937
   574.209045   0.132539
   581.658508   0.135271
   589.107971   0.137144
   596.558350   0.140521
   604.009827   0.143088
   611.462219   0.144617
   618.914612   0.145924
   626.368042   0.147204
   633.821472   0.149897
   641.275879   0.151236
   648.730286   0.151889
   656.185730   0.153397
   663.641113   0.154887
   671.097534   0.157024
   678.553894   0.159109
   686.010315   0.161517
   693.467712   0.169837
   700.925110   0.181502
   708.383545   0.193234
   715.840942   0.205004
   723.299316   0.217482
   730.758728   0.228244
   738.217102   0.236135
   745.676514   0.242814
   753.135925   0.246111
   760.596313   0.249353
   768.055725   0.252188
   775.516113   0.255191
   782.977539   0.257507
   790.437927   0.259880
   797.899353   0.261971
   805.361755   0.263966
   812.823181   0.265713
   820.284607   0.267597
   827.745972   0.269403
   835.207397   0.271045
   842.669861   0.272670
   850.131287   0.274326
   857.593689   0.276023
   865.055115   0.277626
   872.517578   0.279171
   879.980042   0.280802
   887.441467   0.282377
   894.903931   0.283758
   902.366394   0.285557
   909.828857   0.287064
   917.291321   0.288766
   924.753784   0.290187
   932.216248   0.291506
   939.678772   0.293307
   947.140259   0.295130
   954.602722   0.296964
   962.064270   0.298848
   969.526794   0.300841
   976.988281   0.302707
   984.449829   0.303610
   991.911377   0.305396
   999.372864   0.307607
  1006.834412   0.309999
  1014.294983   0.312437
  1021.756592   0.314760
  1029.217163   0.317153
  1036.677734   0.319297
  1044.138306   0.321661
  1051.598877   0.323770
  1059.059570   0.325865
  1066.520142   0.327964
  1073.979736   0.330378
  1081.440430   0.332601
  1088.900024   0.334460
  1096.359741   0.336639
  1103.818359   0.338386
  1111.278076   0.339609
  1118.736816   0.340629
  1126.196411   0.341530
  1133.655151   0.341832
  1141.112915   0.341827
  1148.571655   0.341104
  1156.030396   0.340252
  1163.488159   0.339791
  1170.945923   0.339962
  1178.403687   0.340010
  1185.861572   0.340174
  1193.318359   0.340381
  1200.776123   0.341323
  1208.233032   0.342230
  1215.689819   0.343821
  1223.146729   0.345759
  1230.603638   0.348050
  1238.059570   0.350817
  1245.515381   0.352835
  1252.972412   0.354692
  1260.428345   0.356486
  1267.883301   0.358225
  1275.339233   0.359845
  1282.794189   0.361587
  1290.250244   0.363342
  1297.705200   0.364837
  1305.160278   0.365938
  1312.614380   0.366523
  1320.068481   0.366501
  1327.522461  -0.010000
  1334.975586  -0.010000
  1342.428711  -0.010000
  1349.881836  -0.010000
  1357.335083  -0.010000
  1364.787231  -0.010000
  1372.238403  -0.010000
  1379.690674  -0.010000
  1387.141846  -0.010000
  1394.593140  -0.010000
  1402.043335  -0.010000
  1409.493652  -0.010000
  1416.943970  -0.010000
  1424.393311  -0.010000
  1431.842651  -0.010000
  1439.291992   0.301250
  1446.740356   0.286751
  1454.188843   0.290879
  1461.637207   0.292283
  1469.084717   0.289954
  1476.532104   0.295432
  1483.979614   0.296203
  1491.426147   0.299167
  1498.872681   0.299088
  1506.319214   0.300971
  1513.764893   0.306515
  1521.210449   0.308896
  1528.655029   0.310362
  1536.100708   0.313136
  1543.545410   0.316180
  1550.989136   0.318508
  1558.432861   0.320329
  1565.876587   0.322549
  1573.319336   0.322532
  1580.762085   0.324236
  1588.204956   0.328728
  1595.646729   0.332532
  1603.088623   0.332680
  1610.529541   0.336218
  1617.970459   0.338934
  1625.410400   0.344145
  1632.851318   0.344001
  1640.290283   0.345750
  1647.730347   0.346464
  1655.169434   0.346683
  1662.607422   0.346924
  1670.045532   0.345704
  1677.483643   0.344339
  1684.920898   0.344399
  1692.358032   0.342451
  1699.795166   0.339423
  1707.231445   0.336953
  1714.666748   0.335092
  1722.103027   0.332939
  1729.538330   0.332444
  1736.972656   0.332845
  1744.407104   0.333254
  1751.841431   0.334565
  1759.274902   0.335110
  1766.708374   0.333535
  1774.141846  -0.010000
  1781.574341  -0.010000
  1789.006958  -0.010000
  1796.438477  -0.010000
  1803.870117  -0.010000
  1811.300781  -0.010000
  1818.731445  -0.010000
  1826.161133  -0.010000
  1833.590942  -0.010000
  1841.020630  -0.010000
  1848.449463  -0.010000
  1855.877319  -0.010000
  1863.305176  -0.010000
  1870.733032  -0.010000
  1878.160034  -0.010000
  1885.586914  -0.010000
  1893.012939  -0.010000
  1900.438965  -0.010000
  1907.864014  -0.010000
  1915.289185  -0.010000
  1922.713257  -0.010000
  1930.137451  -0.010000
  1937.560669  -0.010000
  1944.983887  -0.010000
  1952.407104  -0.010000
  1959.829468  -0.010000
  1967.251831   0.270878
  1974.673218   0.274440
  1982.094604   0.277769
  1989.515015   0.280151
  1996.935547   0.281531
  2004.354980   0.283202
  2011.774536   0.283614
  2019.193115   0.282614
  2026.611816   0.280849
  2034.030396   0.279226
  2041.447144   0.276825
  2048.864990   0.275147
  2056.280762   0.272909
  2063.696533   0.271470
  2071.112305   0.271178
  2078.527344   0.268417
  2085.942139   0.267546
  2093.356201   0.265492
  2100.769043   0.265049
  2108.182129   0.263634
  2115.594238   0.264903
  2123.006348   0.267837
  2130.417480   0.269139
  2137.828857   0.268801
  2145.239014   0.270404
  2152.648193   0.269330
  2160.057617   0.268921
  2167.467041   0.267836
  2174.875488   0.267794
  2182.282959   0.269098
  2189.690430   0.268012
  2197.096924   0.266193
  2204.503418   0.265979
  2211.909180   0.267252
  2219.314697   0.266304
  2226.719482   0.267489
  2234.123291   0.264684
  2241.526855   0.257607
  2248.929688   0.253328
  2256.332764   0.245385
  2263.734619   0.239890
  2271.136475   0.233805
  2278.537598   0.228920
  2285.938721   0.226664
  2293.338623   0.221235
  2300.737793   0.218730
  2308.135986   0.214559
  2315.534180   0.213559
  2322.932617   0.209823
  2330.329834   0.208793
  2337.726318   0.205848
  2345.121582   0.203137
  2352.517090   0.204979
  2359.912598   0.210466
  2367.307129   0.212135
  2374.700684   0.213468
  2382.093506   0.215600
  2389.486084   0.213246
  2396.877930   0.212285
  2404.269531   0.208323
  2411.660400   0.210241
  2419.051270   0.209456
  2426.440186   0.198293
  2433.830322   0.193160
  2441.218262   0.183401
  2448.606445   0.185252
  2455.994385   0.168280
  2463.381592   0.154882
  2470.767822   0.151144
  2478.153076   0.143984
  2485.538574   0.117589
  2492.923828   0.106165
