ENVI ASCII Plot File [Wed Jan 07 23:17:48 2026]
Column 1: Wavelength
Column 2: Reflectance (EMIT_L2A_RFL_001_20240623T082158_2417506_019.nc) (866,1046)~~2##255,0,0
   381.005585   0.025859
   388.409210   0.030131
   395.815826   0.034070
   403.225403   0.036909
   410.638000   0.041107
   418.053589   0.044946
   425.472137   0.047595
   432.892700   0.048840
   440.317261   0.051627
   447.742798   0.052950
   455.170349   0.054565
   462.598877   0.056072
   470.030396   0.056597
   477.462921   0.057938
   484.897430   0.058904
   492.332916   0.060221
   499.771423   0.063524
   507.209900   0.066315
   514.650391   0.069098
   522.090881   0.072045
   529.533325   0.075587
   536.976807   0.079898
   544.421265   0.084874
   551.866699   0.091387
   559.314209   0.098114
   566.761597   0.105130
   574.209045   0.112362
   581.658508   0.121025
   589.107971   0.128099
   596.558350   0.136993
   604.009827   0.144121
   611.462219   0.149647
   618.914612   0.155379
   626.368042   0.159175
   633.821472   0.164792
   641.275879   0.169041
   648.730286   0.171283
   656.185730   0.175505
   663.641113   0.179210
   671.097534   0.183864
   678.553894   0.186681
   686.010315   0.189694
   693.467712   0.194816
   700.925110   0.202424
   708.383545   0.208873
   715.840942   0.216322
   723.299316   0.222641
   730.758728   0.228947
   738.217102   0.234449
   745.676514   0.239581
   753.135925   0.241760
   760.596313   0.243711
   768.055725   0.244994
   775.516113   0.246439
   782.977539   0.247028
   790.437927   0.247456
   797.899353   0.247597
   805.361755   0.247632
   812.823181   0.247451
   820.284607   0.247371
   827.745972   0.247195
   835.207397   0.247053
   842.669861   0.246913
   850.131287   0.246874
   857.593689   0.247053
   865.055115   0.247249
   872.517578   0.247514
   879.980042   0.247911
   887.441467   0.248358
   894.903931   0.249005
   902.366394   0.250054
   909.828857   0.250918
   917.291321   0.252081
   924.753784   0.253001
   932.216248   0.254100
   939.678772   0.255629
   947.140259   0.257247
   954.602722   0.259093
   962.064270   0.261021
   969.526794   0.263139
   976.988281   0.265211
   984.449829   0.267642
   991.911377   0.269738
   999.372864   0.271945
  1006.834412   0.274291
  1014.294983   0.276584
  1021.756592   0.278633
  1029.217163   0.280999
  1036.677734   0.283180
  1044.138306   0.285305
  1051.598877   0.287490
  1059.059570   0.289438
  1066.520142   0.291544
  1073.979736   0.293616
  1081.440430   0.295602
  1088.900024   0.297596
  1096.359741   0.299546
  1103.818359   0.301237
  1111.278076   0.302804
  1118.736816   0.304406
  1126.196411   0.305948
  1133.655151   0.307478
  1141.112915   0.308746
  1148.571655   0.309912
  1156.030396   0.311050
  1163.488159   0.312077
  1170.945923   0.313321
  1178.403687   0.314290
  1185.861572   0.315370
  1193.318359   0.316201
  1200.776123   0.317266
  1208.233032   0.318088
  1215.689819   0.319192
  1223.146729   0.320231
  1230.603638   0.321334
  1238.059570   0.322582
  1245.515381   0.323681
  1252.972412   0.324763
  1260.428345   0.325756
  1267.883301   0.326733
  1275.339233   0.327660
  1282.794189   0.328595
  1290.250244   0.329531
  1297.705200   0.330382
  1305.160278   0.331119
  1312.614380   0.331696
  1320.068481   0.332103
  1327.522461  -0.010000
  1334.975586  -0.010000
  1342.428711  -0.010000
  1349.881836  -0.010000
  1357.335083  -0.010000
  1364.787231  -0.010000
  1372.238403  -0.010000
  1379.690674  -0.010000
  1387.141846  -0.010000
  1394.593140  -0.010000
  1402.043335  -0.010000
  1409.493652  -0.010000
  1416.943970  -0.010000
  1424.393311  -0.010000
  1431.842651  -0.010000
  1439.291992   0.294269
  1446.740356   0.298061
  1454.188843   0.301879
  1461.637207   0.305307
  1469.084717   0.301432
  1476.532104   0.301404
  1483.979614   0.304838
  1491.426147   0.305554
  1498.872681   0.306546
  1506.319214   0.305223
  1513.764893   0.305910
  1521.210449   0.308693
  1528.655029   0.308910
  1536.100708   0.307866
  1543.545410   0.310898
  1550.989136   0.312359
  1558.432861   0.312757
  1565.876587   0.312538
  1573.319336   0.310308
  1580.762085   0.311830
  1588.204956   0.314803
  1595.646729   0.315014
  1603.088623   0.313065
  1610.529541   0.316145
  1617.970459   0.317520
  1625.410400   0.319418
  1632.851318   0.319291
  1640.290283   0.319316
  1647.730347   0.318838
  1655.169434   0.319768
  1662.607422   0.319009
  1670.045532   0.319230
  1677.483643   0.319073
  1684.920898   0.318211
  1692.358032   0.318361
  1699.795166   0.317774
  1707.231445   0.316116
  1714.666748   0.316618
  1722.103027   0.315106
  1729.538330   0.314702
  1736.972656   0.315503
  1744.407104   0.314613
  1751.841431   0.315319
  1759.274902   0.315780
  1766.708374   0.315463
  1774.141846  -0.010000
  1781.574341  -0.010000
  1789.006958  -0.010000
  1796.438477  -0.010000
  1803.870117  -0.010000
  1811.300781  -0.010000
  1818.731445  -0.010000
  1826.161133  -0.010000
  1833.590942  -0.010000
  1841.020630  -0.010000
  1848.449463  -0.010000
  1855.877319  -0.010000
  1863.305176  -0.010000
  1870.733032  -0.010000
  1878.160034  -0.010000
  1885.586914  -0.010000
  1893.012939  -0.010000
  1900.438965  -0.010000
  1907.864014  -0.010000
  1915.289185  -0.010000
  1922.713257  -0.010000
  1930.137451  -0.010000
  1937.560669  -0.010000
  1944.983887  -0.010000
  1952.407104  -0.010000
  1959.829468  -0.010000
  1967.251831   0.290186
  1974.673218   0.292124
  1982.094604   0.294000
  1989.515015   0.295407
  1996.935547   0.296063
  2004.354980   0.297204
  2011.774536   0.297547
  2019.193115   0.297414
  2026.611816   0.296772
  2034.030396   0.295861
  2041.447144   0.294909
  2048.864990   0.294209
  2056.280762   0.293127
  2063.696533   0.292527
  2071.112305   0.289704
  2078.527344   0.290100
  2085.942139   0.286453
  2093.356201   0.285982
  2100.769043   0.282166
  2108.182129   0.278240
  2115.594238   0.279492
  2123.006348   0.281535
  2130.417480   0.282911
  2137.828857   0.280609
  2145.239014   0.276360
  2152.648193   0.270477
  2160.057617   0.262298
  2167.467041   0.255706
  2174.875488   0.250755
  2182.282959   0.246033
  2189.690430   0.240889
  2197.096924   0.235240
  2204.503418   0.228987
  2211.909180   0.232762
  2219.314697   0.243195
  2226.719482   0.247841
  2234.123291   0.250818
  2241.526855   0.250233
  2248.929688   0.249038
  2256.332764   0.246247
  2263.734619   0.247020
  2271.136475   0.245156
  2278.537598   0.243048
  2285.938721   0.240641
  2293.338623   0.239147
  2300.737793   0.235212
  2308.135986   0.233298
  2315.534180   0.228871
  2322.932617   0.225227
  2330.329834   0.223592
  2337.726318   0.220600
  2345.121582   0.217106
  2352.517090   0.214273
  2359.912598   0.214912
  2367.307129   0.213341
  2374.700684   0.212605
  2382.093506   0.212045
  2389.486084   0.210800
  2396.877930   0.208005
  2404.269531   0.204274
  2411.660400   0.207764
  2419.051270   0.202055
  2426.440186   0.193869
  2433.830322   0.189398
  2441.218262   0.179854
  2448.606445   0.179084
  2455.994385   0.163729
  2463.381592   0.162375
  2470.767822   0.158574
  2478.153076   0.136699
  2485.538574   0.122884
  2492.923828   0.099690
